 Al Density=2.6989 Thickness=0.2 microns
 Photon Energy (eV), Transmission
    50.000      0.68203    
    50.400      0.68616    
    50.800      0.69022    
    51.200      0.69420    
    51.600      0.69812    
    52.000      0.70197    
    52.400      0.70575    
    52.800      0.70946    
    53.200      0.71294    
    53.600      0.71606    
    54.000      0.71908    
    54.400      0.72181    
    54.800      0.72451    
    55.200      0.72717    
    55.600      0.72978    
    56.000      0.73236    
    56.400      0.73490    
    56.800      0.73741    
    57.200      0.73987    
    57.600      0.74230    
    58.000      0.74470    
    58.400      0.74706    
    58.800      0.74938    
    59.200      0.75168    
    59.600      0.75350    
    60.000      0.75503    
    60.400      0.75648    
    60.800      0.75770    
    61.200      0.75891    
    61.600      0.76010    
    62.000      0.76128    
    62.400      0.76245    
    62.800      0.76361    
    63.200      0.76475    
    63.600      0.76394    
    64.000      0.76254    
    64.400      0.76111    
    64.800      0.75952    
    65.200      0.75792    
    65.600      0.75633    
    66.000      0.75474    
    66.400      0.75315    
    66.800      0.75156    
    67.200      0.74997    
    67.600      0.74846    
    68.000      0.74716    
    68.400      0.74585    
    68.800      0.74457    
    69.200      0.74331    
    69.600      0.74204    
    70.000      0.74078    
    70.400      0.73953    
    70.800      0.73827    
    71.200      0.73702    
    71.600      0.73576    
    72.000      0.73452    
    72.400      0.73327    
    72.800      0.29267E-01
    73.200      0.27898E-01
    73.600      0.26582E-01
    74.000      0.25319E-01
    74.400      0.24106E-01
    74.800      0.22943E-01
    75.200      0.21827E-01
    75.600      0.20758E-01
    76.000      0.19733E-01
    76.400      0.18752E-01
    76.800      0.17812E-01
    77.200      0.16913E-01
    77.600      0.16053E-01
    78.000      0.15230E-01
    78.400      0.14444E-01
    78.800      0.13693E-01
    79.200      0.12976E-01
    79.600      0.12292E-01
    80.000      0.11639E-01
    80.400      0.11017E-01
    80.800      0.10458E-01
    81.200      0.99373E-02
    81.600      0.94396E-02
    82.000      0.89651E-02
    82.400      0.85131E-02
    82.800      0.80812E-02
    83.200      0.76689E-02
    83.600      0.72754E-02
    84.000      0.68999E-02
    84.400      0.65417E-02
    84.800      0.62001E-02
    85.200      0.58745E-02
    85.600      0.55642E-02
    86.000      0.53057E-02
    86.400      0.51170E-02
    86.800      0.49347E-02
    87.200      0.47584E-02
    87.600      0.46784E-02
    88.000      0.46092E-02
    88.400      0.45411E-02
    88.800      0.44742E-02
    89.200      0.44083E-02
    89.600      0.43435E-02
    90.000      0.42798E-02
    90.400      0.42172E-02
    90.800      0.41555E-02
    91.200      0.40949E-02
    91.600      0.40352E-02
    92.000      0.39765E-02
    92.400      0.39188E-02
    92.800      0.38620E-02
    93.200      0.38061E-02
    93.600      0.37511E-02
    94.000      0.36971E-02
    94.400      0.36438E-02
    94.800      0.35915E-02
    95.200      0.35399E-02
    95.600      0.34892E-02
    96.000      0.34393E-02
    96.400      0.33902E-02
    96.800      0.33419E-02
    97.200      0.32943E-02
    97.600      0.32475E-02
    98.000      0.32014E-02
    98.400      0.31561E-02
    98.800      0.31114E-02
    99.200      0.30675E-02
    99.600      0.30242E-02
    100.00      0.29816E-02
    100.40      0.29397E-02
    100.80      0.28985E-02
    101.20      0.28578E-02
    101.60      0.28178E-02
    102.00      0.27784E-02
    102.40      0.27397E-02
    102.80      0.27049E-02
    103.20      0.26708E-02
    103.60      0.26372E-02
    104.00      0.26041E-02
    104.40      0.25782E-02
    104.80      0.25541E-02
    105.20      0.25304E-02
    105.60      0.25069E-02
    106.00      0.24837E-02
    106.40      0.24608E-02
    106.80      0.24381E-02
    107.20      0.24157E-02
    107.60      0.23936E-02
    108.00      0.23717E-02
    108.40      0.23500E-02
    108.80      0.23286E-02
    109.20      0.23074E-02
    109.60      0.22864E-02
    110.00      0.22657E-02
    110.40      0.22452E-02
    110.80      0.22250E-02
    111.20      0.22049E-02
    111.60      0.21851E-02
    112.00      0.21656E-02
    112.40      0.21462E-02
    112.80      0.21271E-02
    113.20      0.21081E-02
    113.60      0.20894E-02
    114.00      0.20709E-02
    114.40      0.20526E-02
    114.80      0.20344E-02
    115.20      0.20165E-02
    115.60      0.19988E-02
    116.00      0.19813E-02
    116.40      0.19640E-02
    116.80      0.19468E-02
    117.20      0.19298E-02
    117.60      0.19130E-02
    118.00      0.18963E-02
    118.40      0.18799E-02
    118.80      0.18636E-02
    119.20      0.18475E-02
    119.60      0.18316E-02
    120.00      0.18158E-02
    120.40      0.18003E-02
    120.80      0.17848E-02
    121.20      0.17696E-02
    121.60      0.17545E-02
    122.00      0.17395E-02
    122.40      0.17247E-02
    122.80      0.17101E-02
    123.20      0.16956E-02
    123.60      0.16813E-02
    124.00      0.16671E-02
    124.40      0.16737E-02
    124.80      0.16953E-02
    125.20      0.17170E-02
    125.60      0.17389E-02
    126.00      0.17609E-02
    126.40      0.17889E-02
    126.80      0.18217E-02
    127.20      0.18549E-02
    127.60      0.18885E-02
    128.00      0.19225E-02
    128.40      0.19570E-02
    128.80      0.19918E-02
    129.20      0.20271E-02
    129.60      0.20627E-02
    130.00      0.20988E-02
    130.40      0.21353E-02
    130.80      0.21721E-02
    131.20      0.22095E-02
    131.60      0.22472E-02
    132.00      0.22853E-02
    132.40      0.23239E-02
    132.80      0.23629E-02
    133.20      0.24023E-02
    133.60      0.24421E-02
    134.00      0.24824E-02
    134.40      0.25231E-02
    134.80      0.25642E-02
    135.20      0.26058E-02
    135.60      0.26478E-02
    136.00      0.26902E-02
    136.40      0.27331E-02
    136.80      0.27764E-02
    137.20      0.28202E-02
    137.60      0.28644E-02
    138.00      0.29090E-02
    138.40      0.29541E-02
    138.80      0.29996E-02
    139.20      0.30455E-02
    139.60      0.30919E-02
    140.00      0.31388E-02
    140.40      0.31861E-02
    140.80      0.32339E-02
    141.20      0.32821E-02
    141.60      0.33307E-02
    142.00      0.33798E-02
    142.40      0.34294E-02
    142.80      0.34794E-02
    143.20      0.35299E-02
    143.60      0.35809E-02
    144.00      0.36322E-02
    144.40      0.36841E-02
    144.80      0.37364E-02
    145.20      0.37892E-02
    145.60      0.38425E-02
    146.00      0.38962E-02
    146.40      0.39503E-02
    146.80      0.40050E-02
    147.20      0.40600E-02
    147.60      0.41156E-02
    148.00      0.41716E-02
    148.40      0.42281E-02
    148.80      0.42851E-02
    149.20      0.43426E-02
    149.60      0.44005E-02
    150.00      0.44589E-02
    150.40      0.45177E-02
    150.80      0.45882E-02
    151.20      0.46648E-02
    151.60      0.47422E-02
    152.00      0.48205E-02
    152.40      0.48996E-02
    152.80      0.49795E-02
    153.20      0.50606E-02
    153.60      0.51427E-02
    154.00      0.52257E-02
    154.40      0.53096E-02
    154.80      0.53943E-02
    155.20      0.54799E-02
    155.60      0.55664E-02
    156.00      0.56537E-02
    156.40      0.57419E-02
    156.80      0.58310E-02
    157.20      0.59210E-02
    157.60      0.60119E-02
    158.00      0.61036E-02
    158.40      0.61962E-02
    158.80      0.62898E-02
    159.20      0.63842E-02
    159.60      0.64795E-02
    160.00      0.65757E-02
    160.40      0.66728E-02
    160.80      0.67708E-02
    161.20      0.68696E-02
    161.60      0.69694E-02
    162.00      0.70701E-02
    162.40      0.71717E-02
    162.80      0.72742E-02
    163.20      0.73776E-02
    163.60      0.74819E-02
    164.00      0.75871E-02
    164.40      0.76933E-02
    164.80      0.78003E-02
    165.20      0.79083E-02
    165.60      0.80172E-02
    166.00      0.81270E-02
    166.40      0.82377E-02
    166.80      0.83494E-02
    167.20      0.84620E-02
    167.60      0.85755E-02
    168.00      0.86899E-02
    168.40      0.88052E-02
    168.80      0.89215E-02
    169.20      0.90387E-02
    169.60      0.91568E-02
    170.00      0.92758E-02
    170.40      0.93958E-02
    170.80      0.95167E-02
    171.20      0.96386E-02
    171.60      0.97613E-02
    172.00      0.98850E-02
    172.40      0.10010E-01
    172.80      0.10135E-01
    173.20      0.10262E-01
    173.60      0.10389E-01
    174.00      0.10518E-01
    174.40      0.10647E-01
    174.80      0.10777E-01
    175.20      0.10908E-01
    175.60      0.11040E-01
    176.00      0.11174E-01
    176.40      0.11308E-01
    176.80      0.11449E-01
    177.20      0.11624E-01
    177.60      0.11800E-01
    178.00      0.11978E-01
    178.40      0.12157E-01
    178.80      0.12338E-01
    179.20      0.12521E-01
    179.60      0.12709E-01
    180.00      0.12988E-01
    180.40      0.13271E-01
    180.80      0.13558E-01
    181.20      0.13849E-01
    181.60      0.14144E-01
    182.00      0.14443E-01
    182.40      0.14747E-01
    182.80      0.15054E-01
    183.20      0.15366E-01
    183.60      0.15682E-01
    184.00      0.16002E-01
    184.40      0.16327E-01
    184.80      0.16656E-01
    185.20      0.16989E-01
    185.60      0.17326E-01
    186.00      0.17667E-01
    186.40      0.18013E-01
    186.80      0.18363E-01
    187.20      0.18717E-01
    187.60      0.19076E-01
    188.00      0.19439E-01
    188.40      0.19806E-01
    188.80      0.20178E-01
    189.20      0.20554E-01
    189.60      0.20934E-01
    190.00      0.21319E-01
    190.40      0.21708E-01
    190.80      0.22102E-01
    191.20      0.22500E-01
    191.60      0.22902E-01
    192.00      0.23309E-01
    192.40      0.23720E-01
    192.80      0.24136E-01
    193.20      0.24556E-01
    193.60      0.24980E-01
    194.00      0.25409E-01
    194.40      0.25842E-01
    194.80      0.26280E-01
    195.20      0.26722E-01
    195.60      0.27169E-01
    196.00      0.27620E-01
    196.40      0.28076E-01
    196.80      0.28536E-01
    197.20      0.29000E-01
    197.60      0.29469E-01
    198.00      0.29942E-01
    198.40      0.30420E-01
    198.80      0.30902E-01
    199.20      0.31389E-01
    199.60      0.31880E-01
    200.00      0.32376E-01
    200.40      0.32876E-01
    200.80      0.33380E-01
    201.20      0.33894E-01
    201.60      0.34414E-01
    202.00      0.34939E-01
    202.40      0.35468E-01
    202.80      0.36002E-01
    203.20      0.36540E-01
    203.60      0.37083E-01
    204.00      0.37631E-01
    204.40      0.38183E-01
    204.80      0.38739E-01
    205.20      0.39300E-01
    205.60      0.39866E-01
    206.00      0.40435E-01
    206.40      0.41010E-01
    206.80      0.41589E-01
    207.20      0.42172E-01
    207.60      0.42759E-01
    208.00      0.43352E-01
    208.40      0.43948E-01
    208.80      0.44549E-01
    209.20      0.45155E-01
    209.60      0.45765E-01
    210.00      0.46379E-01
    210.40      0.46997E-01
    210.80      0.47620E-01
    211.20      0.48247E-01
    211.60      0.48878E-01
    212.00      0.49514E-01
    212.40      0.50154E-01
    212.80      0.50798E-01
    213.20      0.51446E-01
    213.60      0.52099E-01
    214.00      0.52756E-01
    214.40      0.53417E-01
    214.80      0.54082E-01
    215.20      0.54751E-01
    215.60      0.55425E-01
    216.00      0.56103E-01
    216.40      0.56785E-01
    216.80      0.57471E-01
    217.20      0.58161E-01
    217.60      0.58855E-01
    218.00      0.59553E-01
    218.40      0.60255E-01
    218.80      0.60962E-01
    219.20      0.61672E-01
    219.60      0.62386E-01
    220.00      0.63104E-01
    220.40      0.63826E-01
    220.80      0.64552E-01
    221.20      0.65282E-01
    221.60      0.65989E-01
    222.00      0.66696E-01
    222.40      0.67406E-01
    222.80      0.68120E-01
    223.20      0.68837E-01
    223.60      0.69558E-01
    224.00      0.70282E-01
    224.40      0.71010E-01
    224.80      0.71740E-01
    225.20      0.72398E-01
    225.60      0.73054E-01
    226.00      0.73713E-01
    226.40      0.74375E-01
    226.80      0.75039E-01
    227.20      0.75705E-01
    227.60      0.76374E-01
    228.00      0.77045E-01
    228.40      0.77719E-01
    228.80      0.78395E-01
    229.20      0.79073E-01
    229.60      0.79754E-01
    230.00      0.80437E-01
    230.40      0.81122E-01
    230.80      0.81810E-01
    231.20      0.82500E-01
    231.60      0.83192E-01
    232.00      0.83887E-01
    232.40      0.84584E-01
    232.80      0.85283E-01
    233.20      0.85984E-01
    233.60      0.86687E-01
    234.00      0.87393E-01
    234.40      0.88101E-01
    234.80      0.88810E-01
    235.20      0.89522E-01
    235.60      0.90237E-01
    236.00      0.90953E-01
    236.40      0.91671E-01
    236.80      0.92391E-01
    237.20      0.93114E-01
    237.60      0.93838E-01
    238.00      0.94565E-01
    238.40      0.95293E-01
    238.80      0.96024E-01
    239.20      0.96756E-01
    239.60      0.97491E-01
    240.00      0.98227E-01
    240.40      0.98965E-01
    240.80      0.99705E-01
    241.20      0.10045    
    241.60      0.10119    
    242.00      0.10194    
    242.40      0.10268    
    242.80      0.10343    
    243.20      0.10418    
    243.60      0.10494    
    244.00      0.10569    
    244.40      0.10645    
    244.80      0.10721    
    245.20      0.10797    
    245.60      0.10873    
    246.00      0.10949    
    246.40      0.11026    
    246.80      0.11102    
    247.20      0.11179    
    247.60      0.11256    
    248.00      0.11333    
    248.40      0.11411    
    248.80      0.11488    
    249.20      0.11566    
    249.60      0.11644    
    250.00      0.11722   
250.40      0.11800    
    250.80      0.11878    
    251.20      0.11957    
    251.60      0.12035    
    252.00      0.12114    
    252.40      0.12193    
    252.80      0.12272    
    253.20      0.12351    
    253.60      0.12430    
    254.00      0.12509    
    254.40      0.12589    
    254.80      0.12669    
    255.20      0.12748    
    255.60      0.12828    
    256.00      0.12908    
    256.40      0.12989    
    256.80      0.13069    
    257.20      0.13149    
    257.60      0.13230    
    258.00      0.13311    
    258.40      0.13392    
    258.80      0.13472    
    259.20      0.13554    
    259.60      0.13635    
    260.00      0.13716    
    260.40      0.13797    
    260.80      0.13879    
    261.20      0.13961    
    261.60      0.14042    
    262.00      0.14124    
    262.40      0.14206    
    262.80      0.14288    
    263.20      0.14370    
    263.60      0.14453    
    264.00      0.14536    
    264.40      0.14623    
    264.80      0.14710    
    265.20      0.14798    
    265.60      0.14885    
    266.00      0.14973    
    266.40      0.15060    
    266.80      0.15148    
    267.20      0.15236    
    267.60      0.15324    
    268.00      0.15412    
    268.40      0.15510    
    268.80      0.15619    
    269.20      0.15728    
    269.60      0.15837    
    270.00      0.15946    
    270.40      0.16055    
    270.80      0.16165    
    271.20      0.16275    
    271.60      0.16384    
    272.00      0.16494    
    272.40      0.16605    
    272.80      0.16715    
    273.20      0.16826    
    273.60      0.16936    
    274.00      0.17047    
    274.40      0.17158    
    274.80      0.17270    
    275.20      0.17381    
    275.60      0.17492    
    276.00      0.17604    
    276.40      0.17716    
    276.80      0.17828    
    277.20      0.17940    
    277.60      0.18052    
    278.00      0.18164    
    278.40      0.18277    
    278.80      0.18389    
    279.20      0.18502    
    279.60      0.18614    
    280.00      0.18727    
    280.40      0.18840    
    280.80      0.18953    
    281.20      0.19067    
    281.60      0.19180    
    282.00      0.19293    
    282.40      0.19407    
    282.80      0.19521    
    283.20      0.19634    
    283.60      0.19748    
    284.00      0.19862    
    284.40      0.19976    
    284.80      0.20090    
    285.20      0.20204    
    285.60      0.20318    
    286.00      0.20433    
    286.40      0.20547    
    286.80      0.20662    
    287.20      0.20776    
    287.60      0.20891    
    288.00      0.21006    
    288.40      0.21120    
    288.80      0.21235    
    289.20      0.21350    
    289.60      0.21465    
    290.00      0.21580    
    290.40      0.21695    
    290.80      0.21810    
    291.20      0.21925    
    291.60      0.22040    
    292.00      0.22156    
    292.40      0.22271    
    292.80      0.22386    
    293.20      0.22502    
    293.60      0.22617    
    294.00      0.22733    
    294.40      0.22848    
    294.80      0.22964    
    295.20      0.23079    
    295.60      0.23195    
    296.00      0.23310    
    296.40      0.23426    
    296.80      0.23542    
    297.20      0.23657    
    297.60      0.23773    
    298.00      0.23889    
    298.40      0.24004    
    298.80      0.24120    
    299.20      0.24236    
    299.60      0.24351    
    300.00      0.24467    
    300.40      0.24583    
    300.80      0.24699    
    301.20      0.24814    
    301.60      0.24930    
    302.00      0.25046    
    302.40      0.25162    
    302.80      0.25277    
    303.20      0.25393    
    303.60      0.25509    
    304.00      0.25625    
    304.40      0.25740    
    304.80      0.25856    
    305.20      0.25972    
    305.60      0.26087    
    306.00      0.26203    
    306.40      0.26318    
    306.80      0.26434    
    307.20      0.26550    
    307.60      0.26665    
    308.00      0.26781    
    308.40      0.26896    
    308.80      0.27011    
    309.20      0.27127    
    309.60      0.27242    
    310.00      0.27358    
    310.40      0.27473    
    310.80      0.27588    
    311.20      0.27703    
    311.60      0.27818    
    312.00      0.27934    
    312.40      0.28049    
    312.80      0.28164    
    313.20      0.28279    
    313.60      0.28394    
    314.00      0.28508    
    314.40      0.28623    
    314.80      0.28738    
    315.20      0.28853    
    315.60      0.28967    
    316.00      0.29082    
    316.40      0.29197    
    316.80      0.29311    
    317.20      0.29426    
    317.60      0.29540    
    318.00      0.29654    
    318.40      0.29768    
    318.80      0.29883    
    319.20      0.29997    
    319.60      0.30111    
    320.00      0.30225    
    320.40      0.30339    
    320.80      0.30452    
    321.20      0.30566    
    321.60      0.30680    
    322.00      0.30793    
    322.40      0.30907    
    322.80      0.31020    
    323.20      0.31134    
    323.60      0.31247    
    324.00      0.31360    
    324.40      0.31473    
    324.80      0.31586    
    325.20      0.31699    
    325.60      0.31812    
    326.00      0.31925    
    326.40      0.32037    
    326.80      0.32150    
    327.20      0.32263    
    327.60      0.32375    
    328.00      0.32487    
    328.40      0.32599    
    328.80      0.32712    
    329.20      0.32824    
    329.60      0.32935    
    330.00      0.33047    
    330.40      0.33159    
    330.80      0.33271    
    331.20      0.33382    
    331.60      0.33494    
    332.00      0.33605    
    332.40      0.33716    
    332.80      0.33827    
    333.20      0.33938    
    333.60      0.34049    
    334.00      0.34160    
    334.40      0.34271    
    334.80      0.34381    
    335.20      0.34492    
    335.60      0.34602    
    336.00      0.34712    
    336.40      0.34822    
    336.80      0.34932    
    337.20      0.35042    
    337.60      0.35152    
    338.00      0.35262    
    338.40      0.35371    
    338.80      0.35481    
    339.20      0.35590    
    339.60      0.35699    
    340.00      0.35809    
    340.40      0.35918    
    340.80      0.36026    
    341.20      0.36135    
    341.60      0.36244    
    342.00      0.36352    
    342.40      0.36461    
    342.80      0.36569    
    343.20      0.36677    
    343.60      0.36785    
    344.00      0.36893    
    344.40      0.37000    
    344.80      0.37108    
    345.20      0.37216    
    345.60      0.37323    
    346.00      0.37430    
    346.40      0.37537    
    346.80      0.37644    
    347.20      0.37751    
    347.60      0.37858    
    348.00      0.37964    
    348.40      0.38071    
    348.80      0.38177    
    349.20      0.38283    
    349.60      0.38389    
    350.00      0.38495    
    350.40      0.38601    
    350.80      0.38707    
    351.20      0.38812    
    351.60      0.38917    
    352.00      0.39023    
    352.40      0.39128    
    352.80      0.39233    
    353.20      0.39338    
    353.60      0.39442    
    354.00      0.39547    
    354.40      0.39651    
    354.80      0.39755    
    355.20      0.39860    
    355.60      0.39964    
    356.00      0.40067    
    356.40      0.40171    
    356.80      0.40275    
    357.20      0.40378    
    357.60      0.40481    
    358.00      0.40584    
    358.40      0.40680    
    358.80      0.40775    
    359.20      0.40870    
    359.60      0.40965    
    360.00      0.41059    
    360.40      0.41154    
    360.80      0.41248    
    361.20      0.41343    
    361.60      0.41437    
    362.00      0.41531    
    362.40      0.41625    
    362.80      0.41719    
    363.20      0.41812    
    363.60      0.41906    
    364.00      0.41998    
    364.40      0.42089    
    364.80      0.42179    
    365.20      0.42270    
    365.60      0.42360    
    366.00      0.42451    
    366.40      0.42541    
    366.80      0.42631    
    367.20      0.42721    
    367.60      0.42810    
    368.00      0.42900    
    368.40      0.42990    
    368.80      0.43079    
    369.20      0.43168    
    369.60      0.43257    
    370.00      0.43346    
    370.40      0.43435    
    370.80      0.43524    
    371.20      0.43612    
    371.60      0.43701    
    372.00      0.43789    
    372.40      0.43877    
    372.80      0.43965    
    373.20      0.44053    
    373.60      0.44141    
    374.00      0.44229    
    374.40      0.44316    
    374.80      0.44404    
    375.20      0.44491    
    375.60      0.44578    
    376.00      0.44665    
    376.40      0.44752    
    376.80      0.44839    
    377.20      0.44925    
    377.60      0.45012    
    378.00      0.45098    
    378.40      0.45184    
    378.80      0.45270    
    379.20      0.45356    
    379.60      0.45442    
    380.00      0.45528    
    380.40      0.45613    
    380.80      0.45698    
    381.20      0.45784    
    381.60      0.45869    
    382.00      0.45954    
    382.40      0.46039    
    382.80      0.46123    
    383.20      0.46208    
    383.60      0.46292    
    384.00      0.46377    
    384.40      0.46461    
    384.80      0.46545    
    385.20      0.46629    
    385.60      0.46713    
    386.00      0.46796    
    386.40      0.46880    
    386.80      0.46963    
    387.20      0.47047    
    387.60      0.47130    
    388.00      0.47213    
    388.40      0.47296    
    388.80      0.47378    
    389.20      0.47461    
    389.60      0.47543    
    390.00      0.47626    
    390.40      0.47708    
    390.80      0.47790    
    391.20      0.47872    
    391.60      0.47953    
    392.00      0.48035    
    392.40      0.48117    
    392.80      0.48198    
    393.20      0.48279    
    393.60      0.48360    
    394.00      0.48441    
    394.40      0.48522    
    394.80      0.48603    
    395.20      0.48683    
    395.60      0.48764    
    396.00      0.48844    
    396.40      0.48924    
    396.80      0.49004    
    397.20      0.49084    
    397.60      0.49164    
    398.00      0.49244    
    398.40      0.49323    
    398.80      0.49402    
    399.20      0.49482    
    399.60      0.49561    
    400.00      0.49640    
    400.40      0.49719    
    400.80      0.49797    
    401.20      0.49876    
    401.60      0.49954    
    402.00      0.50033    
    402.40      0.50111    
    402.80      0.50189    
    403.20      0.50267    
    403.60      0.50345    
    404.00      0.50422    
    404.40      0.50500    
    404.80      0.50577    
    405.20      0.50654    
    405.60      0.50732    
    406.00      0.50809    
    406.40      0.50885    
    406.80      0.50962    
    407.20      0.51039    
    407.60      0.51115    
    408.00      0.51192    
    408.40      0.51268    
    408.80      0.51344    
    409.20      0.51420    
    409.60      0.51496    
    410.00      0.51571    
    410.40      0.51647    
    410.80      0.51722    
    411.20      0.51798    
    411.60      0.51873    
    412.00      0.51948    
    412.40      0.52023    
    412.80      0.52097    
    413.20      0.52172    
    413.60      0.52247    
    414.00      0.52321    
    414.40      0.52395    
    414.80      0.52469    
    415.20      0.52543    
    415.60      0.52617    
    416.00      0.52691    
    416.40      0.52765    
    416.80      0.52838    
    417.20      0.52912    
    417.60      0.52985    
    418.00      0.53058    
    418.40      0.53131    
    418.80      0.53204    
    419.20      0.53276    
    419.60      0.53349    
    420.00      0.53421    
    420.40      0.53494    
    420.80      0.53566    
    421.20      0.53638    
    421.60      0.53710    
    422.00      0.53782    
    422.40      0.53853    
    422.80      0.53925    
    423.20      0.53997    
    423.60      0.54068    
    424.00      0.54139    
    424.40      0.54210    
    424.80      0.54281    
    425.20      0.54352    
    425.60      0.54423    
    426.00      0.54493    
    426.40      0.54564    
    426.80      0.54634    
    427.20      0.54704    
    427.60      0.54774    
    428.00      0.54844    
    428.40      0.54914    
    428.80      0.54984    
    429.20      0.55053    
    429.60      0.55123    
    430.00      0.55192    
    430.40      0.55261    
    430.80      0.55330    
    431.20      0.55399    
    431.60      0.55468    
    432.00      0.55537    
    432.40      0.55605    
    432.80      0.55674    
    433.20      0.55742    
    433.60      0.55810    
    434.00      0.55878    
    434.40      0.55950    
    434.80      0.56022    
    435.20      0.56095    
    435.60      0.56166    
    436.00      0.56238    
    436.40      0.56310    
    436.80      0.56381    
    437.20      0.56453    
    437.60      0.56524    
    438.00      0.56595    
    438.40      0.56666    
    438.80      0.56737    
    439.20      0.56807    
    439.60      0.56878    
    440.00      0.56948    
    440.40      0.57019    
    440.80      0.57089    
    441.20      0.57160    
    441.60      0.57231    
    442.00      0.57303    
    442.40      0.57374    
    442.80      0.57446    
    443.20      0.57517    
    443.60      0.57588    
    444.00      0.57659    
    444.40      0.57730    
    444.80      0.57800    
    445.20      0.57871    
    445.60      0.57941    
    446.00      0.58012    
    446.40      0.58082    
    446.80      0.58152    
    447.20      0.58222    
    447.60      0.58291    
    448.00      0.58361    
    448.40      0.58430    
    448.80      0.58499    
    449.20      0.58569    
    449.60      0.58638    
    450.00      0.58706    
 450.40      0.58775    
    450.80      0.58844    
    451.20      0.58912    
    451.60      0.58980    
    452.00      0.59049    
    452.40      0.59117    
    452.80      0.59184    
    453.20      0.59252    
    453.60      0.59320    
    454.00      0.59387    
    454.40      0.59455    
    454.80      0.59522    
    455.20      0.59589    
    455.60      0.59656    
    456.00      0.59723    
    456.40      0.59790    
    456.80      0.59856    
    457.20      0.59923    
    457.60      0.59989    
    458.00      0.60056    
    458.40      0.60122    
    458.80      0.60188    
    459.20      0.60254    
    459.60      0.60319    
    460.00      0.60385    
    460.40      0.60450    
    460.80      0.60516    
    461.20      0.60581    
    461.60      0.60646    
    462.00      0.60711    
    462.40      0.60776    
    462.80      0.60841    
    463.20      0.60905    
    463.60      0.60970    
    464.00      0.61034    
    464.40      0.61098    
    464.80      0.61162    
    465.20      0.61226    
    465.60      0.61290    
    466.00      0.61354    
    466.40      0.61418    
    466.80      0.61481    
    467.20      0.61545    
    467.60      0.61608    
    468.00      0.61671    
    468.40      0.61734    
    468.80      0.61797    
    469.20      0.61860    
    469.60      0.61922    
    470.00      0.61985    
    470.40      0.62047    
    470.80      0.62109    
    471.20      0.62172    
    471.60      0.62234    
    472.00      0.62295    
    472.40      0.62357    
    472.80      0.62419    
    473.20      0.62480    
    473.60      0.62542    
    474.00      0.62603    
    474.40      0.62664    
    474.80      0.62725    
    475.20      0.62786    
    475.60      0.62847    
    476.00      0.62908    
    476.40      0.62968    
    476.80      0.63029    
    477.20      0.63089    
    477.60      0.63149    
    478.00      0.63209    
    478.40      0.63270    
    478.80      0.63329    
    479.20      0.63389    
    479.60      0.63449    
    480.00      0.63508    
    480.40      0.63568    
    480.80      0.63627    
    481.20      0.63686    
    481.60      0.63745    
    482.00      0.63804    
    482.40      0.63863    
    482.80      0.63922    
    483.20      0.63981    
    483.60      0.64039    
    484.00      0.64097    
    484.40      0.64156    
    484.80      0.64214    
    485.20      0.64272    
    485.60      0.64330    
    486.00      0.64388    
    486.40      0.64445    
    486.80      0.64503    
    487.20      0.64561    
    487.60      0.64618    
    488.00      0.64676    
    488.40      0.64733    
    488.80      0.64790    
    489.20      0.64847    
    489.60      0.64904    
    490.00      0.64961    
    490.40      0.65017    
    490.80      0.65074    
    491.20      0.65130    
    491.60      0.65187    
    492.00      0.65243    
    492.40      0.65299    
    492.80      0.65355    
    493.20      0.65411    
    493.60      0.65467    
    494.00      0.65523    
    494.40      0.65579    
    494.80      0.65635    
    495.20      0.65691    
    495.60      0.65747    
    496.00      0.65803    
    496.40      0.65858    
    496.80      0.65913    
    497.20      0.65969    
    497.60      0.66024    
    498.00      0.66079    
    498.40      0.66134    
    498.80      0.66189    
    499.20      0.66244    
    499.60      0.66298    
    500.00      0.66353    
    500.40      0.66407    
    500.80      0.66462    
    501.20      0.66516    
    501.60      0.66570    
    502.00      0.66625    
    502.40      0.66680    
    502.80      0.66735    
    503.20      0.66789    
    503.60      0.66844    
    504.00      0.66898    
    504.40      0.66952    
    504.80      0.67006    
    505.20      0.67060    
    505.60      0.67114    
    506.00      0.67168    
    506.40      0.67221    
    506.80      0.67275    
    507.20      0.67328    
    507.60      0.67382    
    508.00      0.67435    
    508.40      0.67488    
    508.80      0.67541    
    509.20      0.67594    
    509.60      0.67647    
    510.00      0.67700    
    510.40      0.67753    
    510.80      0.67806    
    511.20      0.67858    
    511.60      0.67911    
    512.00      0.67963    
    512.40      0.68016    
    512.80      0.68068    
    513.20      0.68120    
    513.60      0.68172    
    514.00      0.68224    
    514.40      0.68276    
    514.80      0.68328    
    515.20      0.68380    
    515.60      0.68431    
    516.00      0.68483    
    516.40      0.68534    
    516.80      0.68585    
    517.20      0.68636    
    517.60      0.68688    
    518.00      0.68738    
    518.40      0.68789    
    518.80      0.68840    
    519.20      0.68890    
    519.60      0.68941    
    520.00      0.68991    
    520.40      0.69041    
    520.80      0.69091    
    521.20      0.69141    
    521.60      0.69191    
    522.00      0.69241    
    522.40      0.69291    
    522.80      0.69341    
    523.20      0.69390    
    523.60      0.69439    
    524.00      0.69489    
    524.40      0.69538    
    524.80      0.69587    
    525.20      0.69636    
    525.60      0.69685    
    526.00      0.69734    
    526.40      0.69783    
    526.80      0.69831    
    527.20      0.69879    
    527.60      0.69928    
    528.00      0.69976    
    528.40      0.70024    
    528.80      0.70072    
    529.20      0.70120    
    529.60      0.70167    
    530.00      0.70215    
    530.40      0.70263    
    530.80      0.70310    
    531.20      0.70357    
    531.60      0.70405    
    532.00      0.70452    
    532.40      0.70499    
    532.80      0.70546    
    533.20      0.70593    
    533.60      0.70640    
    534.00      0.70687    
    534.40      0.70733    
    534.80      0.70780    
    535.20      0.70826    
    535.60      0.70872    
    536.00      0.70919    
    536.40      0.70965    
    536.80      0.71011    
    537.20      0.71056    
    537.60      0.71102    
    538.00      0.71148    
    538.40      0.71194    
    538.80      0.71239    
    539.20      0.71285    
    539.60      0.71330    
    540.00      0.71375    
    540.40      0.71420    
    540.80      0.71466    
    541.20      0.71511    
    541.60      0.71555    
    542.00      0.71600    
    542.40      0.71645    
    542.80      0.71690    
    543.20      0.71734    
    543.60      0.71779    
    544.00      0.71823    
    544.40      0.71867    
    544.80      0.71911    
    545.20      0.71956    
    545.60      0.72000    
    546.00      0.72044    
    546.40      0.72087    
    546.80      0.72131    
    547.20      0.72175    
    547.60      0.72218    
    548.00      0.72262    
    548.40      0.72305    
    548.80      0.72349    
    549.20      0.72392    
    549.60      0.72435    
    550.00      0.72478    
    550.40      0.72521    
    550.80      0.72564    
    551.20      0.72607    
    551.60      0.72649    
    552.00      0.72692    
    552.40      0.72735    
    552.80      0.72779    
    553.20      0.72822    
    553.60      0.72865    
    554.00      0.72908    
    554.40      0.72951    
    554.80      0.72994    
    555.20      0.73037    
    555.60      0.73079    
    556.00      0.73122    
    556.40      0.73165    
    556.80      0.73207    
    557.20      0.73250    
    557.60      0.73292    
    558.00      0.73334    
    558.40      0.73376    
    558.80      0.73418    
    559.20      0.73460    
    559.60      0.73502    
    560.00      0.73544    
    560.40      0.73586    
    560.80      0.73627    
    561.20      0.73669    
    561.60      0.73711    
    562.00      0.73753    
    562.40      0.73795    
    562.80      0.73836    
    563.20      0.73878    
    563.60      0.73919    
    564.00      0.73961    
    564.40      0.74002    
    564.80      0.74043    
    565.20      0.74085    
    565.60      0.74126    
    566.00      0.74167    
    566.40      0.74208    
    566.80      0.74248    
    567.20      0.74289    
    567.60      0.74330    
    568.00      0.74371    
    568.40      0.74411    
    568.80      0.74452    
    569.20      0.74492    
    569.60      0.74532    
    570.00      0.74572    
    570.40      0.74613    
    570.80      0.74653    
    571.20      0.74694    
    571.60      0.74734    
    572.00      0.74775    
    572.40      0.74815    
    572.80      0.74855    
    573.20      0.74895    
    573.60      0.74935    
    574.00      0.74975    
    574.40      0.75015    
    574.80      0.75054    
    575.20      0.75094    
    575.60      0.75134    
    576.00      0.75173    
    576.40      0.75212    
    576.80      0.75252    
    577.20      0.75291    
    577.60      0.75330    
    578.00      0.75369    
    578.40      0.75408    
    578.80      0.75447    
    579.20      0.75486    
    579.60      0.75525    
    580.00      0.75564    
    580.40      0.75603    
    580.80      0.75641    
    581.20      0.75680    
    581.60      0.75718    
    582.00      0.75757    
    582.40      0.75795    
    582.80      0.75833    
    583.20      0.75871    
    583.60      0.75910    
    584.00      0.75948    
    584.40      0.75986    
    584.80      0.76023    
    585.20      0.76061    
    585.60      0.76099    
    586.00      0.76137    
    586.40      0.76174    
    586.80      0.76212    
    587.20      0.76249    
    587.60      0.76286    
    588.00      0.76324    
    588.40      0.76361    
    588.80      0.76398    
    589.20      0.76435    
    589.60      0.76472    
    590.00      0.76509    
    590.40      0.76546    
    590.80      0.76583    
    591.20      0.76620    
    591.60      0.76656    
    592.00      0.76693    
    592.40      0.76730    
    592.80      0.76766    
    593.20      0.76802    
    593.60      0.76839    
    594.00      0.76875    
    594.40      0.76911    
    594.80      0.76947    
    595.20      0.76983    
    595.60      0.77019    
    596.00      0.77055    
    596.40      0.77091    
    596.80      0.77127    
    597.20      0.77162    
    597.60      0.77198    
    598.00      0.77234    
    598.40      0.77269    
    598.80      0.77304    
    599.20      0.77340    
    599.60      0.77375    
    600.00      0.77410    
    600.40      0.77445    
    600.80      0.77480    
    601.20      0.77515    
    601.60      0.77550    
    602.00      0.77585    
    602.40      0.77620    
    602.80      0.77654    
    603.20      0.77689    
    603.60      0.77724    
    604.00      0.77758    
    604.40      0.77792    
    604.80      0.77827    
    605.20      0.77861    
    605.60      0.77895    
    606.00      0.77929    
    606.40      0.77964    
    606.80      0.77998    
    607.20      0.78031    
    607.60      0.78065    
    608.00      0.78099    
    608.40      0.78133    
    608.80      0.78167    
    609.20      0.78200    
    609.60      0.78234    
    610.00      0.78267    
    610.40      0.78301    
    610.80      0.78334    
    611.20      0.78367    
    611.60      0.78400    
    612.00      0.78434    
    612.40      0.78467    
    612.80      0.78500    
    613.20      0.78533    
    613.60      0.78566    
    614.00      0.78598    
    614.40      0.78631    
    614.80      0.78664    
    615.20      0.78696    
    615.60      0.78729    
    616.00      0.78762    
    616.40      0.78794    
    616.80      0.78826    
    617.20      0.78859    
    617.60      0.78891    
    618.00      0.78923    
    618.40      0.78955    
    618.80      0.78987    
    619.20      0.79020    
    619.60      0.79052    
    620.00      0.79083    
    620.40      0.79115    
    620.80      0.79147    
    621.20      0.79179    
    621.60      0.79211    
    622.00      0.79242    
    622.40      0.79274    
    622.80      0.79305    
    623.20      0.79337    
    623.60      0.79368    
    624.00      0.79399    
    624.40      0.79431    
    624.80      0.79462    
    625.20      0.79493    
    625.60      0.79524    
    626.00      0.79555    
    626.40      0.79586    
    626.80      0.79617    
    627.20      0.79648    
    627.60      0.79678    
    628.00      0.79709    
    628.40      0.79741    
    628.80      0.79772    
    629.20      0.79803    
    629.60      0.79834    
    630.00      0.79865    
    630.40      0.79896    
    630.80      0.79927    
    631.20      0.79957    
    631.60      0.79988    
    632.00      0.80019    
    632.40      0.80050    
    632.80      0.80080    
    633.20      0.80111    
    633.60      0.80141    
    634.00      0.80171    
    634.40      0.80202    
    634.80      0.80232    
    635.20      0.80262    
    635.60      0.80292    
    636.00      0.80322    
    636.40      0.80352    
    636.80      0.80382    
    637.20      0.80412    
    637.60      0.80442    
    638.00      0.80472    
    638.40      0.80503    
    638.80      0.80533    
    639.20      0.80564    
    639.60      0.80594    
    640.00      0.80624    
    640.40      0.80655    
    640.80      0.80685    
    641.20      0.80715    
    641.60      0.80745    
    642.00      0.80775    
    642.40      0.80805    
    642.80      0.80835    
    643.20      0.80865    
    643.60      0.80894    
    644.00      0.80924    
    644.40      0.80954    
    644.80      0.80983    
    645.20      0.81013    
    645.60      0.81042    
    646.00      0.81072    
    646.40      0.81101    
    646.80      0.81131    
    647.20      0.81160    
    647.60      0.81189    
    648.00      0.81218    
    648.40      0.81248    
    648.80      0.81277    
    649.20      0.81307    
    649.60      0.81336    
    650.00      0.81365    
 650.40      0.81395    
    650.80      0.81424    
    651.20      0.81453    
    651.60      0.81482    
    652.00      0.81511    
    652.40      0.81540    
    652.80      0.81569    
    653.20      0.81598    
    653.60      0.81627    
    654.00      0.81656    
    654.40      0.81685    
    654.80      0.81713    
    655.20      0.81742    
    655.60      0.81771    
    656.00      0.81799    
    656.40      0.81827    
    656.80      0.81856    
    657.20      0.81884    
    657.60      0.81912    
    658.00      0.81941    
    658.40      0.81969    
    658.80      0.81997    
    659.20      0.82025    
    659.60      0.82053    
    660.00      0.82081    
    660.40      0.82109    
    660.80      0.82137    
    661.20      0.82164    
    661.60      0.82192    
    662.00      0.82220    
    662.40      0.82247    
    662.80      0.82275    
    663.20      0.82302    
    663.60      0.82330    
    664.00      0.82357    
    664.40      0.82385    
    664.80      0.82412    
    665.20      0.82439    
    665.60      0.82466    
    666.00      0.82493    
    666.40      0.82520    
    666.80      0.82547    
    667.20      0.82574    
    667.60      0.82601    
    668.00      0.82628    
    668.40      0.82655    
    668.80      0.82682    
    669.20      0.82708    
    669.60      0.82734    
    670.00      0.82759    
    670.40      0.82784    
    670.80      0.82809    
    671.20      0.82833    
    671.60      0.82858    
    672.00      0.82883    
    672.40      0.82907    
    672.80      0.82932    
    673.20      0.82957    
    673.60      0.82981    
    674.00      0.83006    
    674.40      0.83030    
    674.80      0.83054    
    675.20      0.83079    
    675.60      0.83103    
    676.00      0.83127    
    676.40      0.83151    
    676.80      0.83176    
    677.20      0.83200    
    677.60      0.83224    
    678.00      0.83248    
    678.40      0.83272    
    678.80      0.83296    
    679.20      0.83320    
    679.60      0.83343    
    680.00      0.83367    
    680.40      0.83390    
    680.80      0.83413    
    681.20      0.83435    
    681.60      0.83458    
    682.00      0.83480    
    682.40      0.83502    
    682.80      0.83524    
    683.20      0.83547    
    683.60      0.83569    
    684.00      0.83591    
    684.40      0.83613    
    684.80      0.83635    
    685.20      0.83657    
    685.60      0.83679    
    686.00      0.83701    
    686.40      0.83723    
    686.80      0.83745    
    687.20      0.83767    
    687.60      0.83789    
    688.00      0.83810    
    688.40      0.83832    
    688.80      0.83854    
    689.20      0.83876    
    689.60      0.83897    
    690.00      0.83919    
    690.40      0.83940    
    690.80      0.83962    
    691.20      0.83983    
    691.60      0.84004    
    692.00      0.84025    
    692.40      0.84046    
    692.80      0.84067    
    693.20      0.84088    
    693.60      0.84109    
    694.00      0.84130    
    694.40      0.84151    
    694.80      0.84172    
    695.20      0.84193    
    695.60      0.84213    
    696.00      0.84234    
    696.40      0.84255    
    696.80      0.84275    
    697.20      0.84296    
    697.60      0.84316    
    698.00      0.84337    
    698.40      0.84358    
    698.80      0.84378    
    699.20      0.84398    
    699.60      0.84419    
    700.00      0.84439    
    700.40      0.84459    
    700.80      0.84480    
    701.20      0.84500    
    701.60      0.84520    
    702.00      0.84540    
    702.40      0.84560    
    702.80      0.84582    
    703.20      0.84602    
    703.60      0.84623    
    704.00      0.84644    
    704.40      0.84665    
    704.80      0.84686    
    705.20      0.84707    
    705.60      0.84728    
    706.00      0.84748    
    706.40      0.84769    
    706.80      0.84790    
    707.20      0.84810    
    707.60      0.84831    
    708.00      0.84851    
    708.40      0.84872    
    708.80      0.84892    
    709.20      0.84913    
    709.60      0.84933    
    710.00      0.84954    
    710.40      0.84974    
    710.80      0.84994    
    711.20      0.85014    
    711.60      0.85035    
    712.00      0.85055    
    712.40      0.85075    
    712.80      0.85095    
    713.20      0.85115    
    713.60      0.85135    
    714.00      0.85156    
    714.40      0.85176    
    714.80      0.85197    
    715.20      0.85217    
    715.60      0.85238    
    716.00      0.85258    
    716.40      0.85279    
    716.80      0.85299    
    717.20      0.85319    
    717.60      0.85340    
    718.00      0.85360    
    718.40      0.85380    
    718.80      0.85400    
    719.20      0.85420    
    719.60      0.85440    
    720.00      0.85461    
    720.40      0.85481    
    720.80      0.85501    
    721.20      0.85520    
    721.60      0.85540    
    722.00      0.85560    
    722.40      0.85580    
    722.80      0.85600    
    723.20      0.85620    
    723.60      0.85639    
    724.00      0.85659    
    724.40      0.85679    
    724.80      0.85698    
    725.20      0.85718    
    725.60      0.85738    
    726.00      0.85757    
    726.40      0.85777    
    726.80      0.85796    
    727.20      0.85816    
    727.60      0.85835    
    728.00      0.85854    
    728.40      0.85874    
    728.80      0.85893    
    729.20      0.85912    
    729.60      0.85931    
    730.00      0.85950    
    730.40      0.85970    
    730.80      0.85989    
    731.20      0.86008    
    731.60      0.86027    
    732.00      0.86046    
    732.40      0.86065    
    732.80      0.86084    
    733.20      0.86103    
    733.60      0.86121    
    734.00      0.86140    
    734.40      0.86159    
    734.80      0.86178    
    735.20      0.86197    
    735.60      0.86215    
    736.00      0.86234    
    736.40      0.86253    
    736.80      0.86271    
    737.20      0.86290    
    737.60      0.86308    
    738.00      0.86327    
    738.40      0.86345    
    738.80      0.86364    
    739.20      0.86382    
    739.60      0.86401    
    740.00      0.86419    
    740.40      0.86437    
    740.80      0.86455    
    741.20      0.86474    
    741.60      0.86492    
    742.00      0.86510    
    742.40      0.86528    
    742.80      0.86546    
    743.20      0.86564    
    743.60      0.86582    
    744.00      0.86600    
    744.40      0.86618    
    744.80      0.86636    
    745.20      0.86654    
    745.60      0.86672    
    746.00      0.86690    
    746.40      0.86708    
    746.80      0.86726    
    747.20      0.86743    
    747.60      0.86761    
    748.00      0.86779    
    748.40      0.86797    
    748.80      0.86814    
    749.20      0.86832    
    749.60      0.86849    
    750.00      0.86867    
    750.40      0.86884    
    750.80      0.86902    
    751.20      0.86919    
    751.60      0.86937    
    752.00      0.86954    
    752.40      0.86972    
    752.80      0.86989    
    753.20      0.87006    
    753.60      0.87024    
    754.00      0.87041    
    754.40      0.87058    
    754.80      0.87075    
    755.20      0.87092    
    755.60      0.87109    
    756.00      0.87127    
    756.40      0.87144    
    756.80      0.87161    
    757.20      0.87178    
    757.60      0.87195    
    758.00      0.87212    
    758.40      0.87228    
    758.80      0.87245    
    759.20      0.87262    
    759.60      0.87279    
    760.00      0.87296    
    760.40      0.87313    
    760.80      0.87329    
    761.20      0.87346    
    761.60      0.87363    
    762.00      0.87379    
    762.40      0.87396    
    762.80      0.87413    
    763.20      0.87429    
    763.60      0.87446    
    764.00      0.87462    
    764.40      0.87479    
    764.80      0.87495    
    765.20      0.87512    
    765.60      0.87528    
    766.00      0.87545    
    766.40      0.87561    
    766.80      0.87577    
    767.20      0.87594    
    767.60      0.87610    
    768.00      0.87626    
    768.40      0.87642    
    768.80      0.87659    
    769.20      0.87675    
    769.60      0.87691    
    770.00      0.87707    
    770.40      0.87723    
    770.80      0.87739    
    771.20      0.87755    
    771.60      0.87771    
    772.00      0.87787    
    772.40      0.87803    
    772.80      0.87819    
    773.20      0.87835    
    773.60      0.87851    
    774.00      0.87867    
    774.40      0.87883    
    774.80      0.87899    
    775.20      0.87915    
    775.60      0.87930    
    776.00      0.87946    
    776.40      0.87962    
    776.80      0.87978    
    777.20      0.87993    
    777.60      0.88009    
    778.00      0.88025    
    778.40      0.88040    
    778.80      0.88056    
    779.20      0.88072    
    779.60      0.88087    
    780.00      0.88103    
    780.40      0.88118    
    780.80      0.88134    
    781.20      0.88149    
    781.60      0.88165    
    782.00      0.88180    
    782.40      0.88195    
    782.80      0.88211    
    783.20      0.88226    
    783.60      0.88241    
    784.00      0.88257    
    784.40      0.88272    
    784.80      0.88287    
    785.20      0.88302    
    785.60      0.88318    
    786.00      0.88333    
    786.40      0.88348    
    786.80      0.88363    
    787.20      0.88378    
    787.60      0.88393    
    788.00      0.88408    
    788.40      0.88423    
    788.80      0.88439    
    789.20      0.88454    
    789.60      0.88469    
    790.00      0.88483    
    790.40      0.88498    
    790.80      0.88513    
    791.20      0.88528    
    791.60      0.88543    
    792.00      0.88558    
    792.40      0.88573    
    792.80      0.88588    
    793.20      0.88602    
    793.60      0.88617    
    794.00      0.88632    
    794.40      0.88646    
    794.80      0.88661    
    795.20      0.88676    
    795.60      0.88690    
    796.00      0.88705    
    796.40      0.88719    
    796.80      0.88734    
    797.20      0.88748    
    797.60      0.88763    
    798.00      0.88777    
    798.40      0.88792    
    798.80      0.88806    
    799.20      0.88821    
    799.60      0.88835    
    800.00      0.88849    
    800.40      0.88864    
    800.80      0.88878    
    801.20      0.88892    
    801.60      0.88906    
    802.00      0.88921    
    802.40      0.88935    
    802.80      0.88949    
    803.20      0.88963    
    803.60      0.88977    
    804.00      0.88991    
    804.40      0.89005    
    804.80      0.89020    
    805.20      0.89034    
    805.60      0.89048    
    806.00      0.89062    
    806.40      0.89075    
    806.80      0.89089    
    807.20      0.89103    
    807.60      0.89117    
    808.00      0.89131    
    808.40      0.89145    
    808.80      0.89159    
    809.20      0.89172    
    809.60      0.89186    
    810.00      0.89200    
    810.40      0.89214    
    810.80      0.89227    
    811.20      0.89241    
    811.60      0.89255    
    812.00      0.89268    
    812.40      0.89282    
    812.80      0.89296    
    813.20      0.89309    
    813.60      0.89323    
    814.00      0.89336    
    814.40      0.89350    
    814.80      0.89363    
    815.20      0.89377    
    815.60      0.89390    
    816.00      0.89403    
    816.40      0.89417    
    816.80      0.89430    
    817.20      0.89444    
    817.60      0.89457    
    818.00      0.89470    
    818.40      0.89483    
    818.80      0.89497    
    819.20      0.89510    
    819.60      0.89523    
    820.00      0.89536    
    820.40      0.89549    
    820.80      0.89563    
    821.20      0.89576    
    821.60      0.89589    
    822.00      0.89602    
    822.40      0.89615    
    822.80      0.89628    
    823.20      0.89641    
    823.60      0.89654    
    824.00      0.89667    
    824.40      0.89680    
    824.80      0.89693    
    825.20      0.89706    
    825.60      0.89719    
    826.00      0.89731    
    826.40      0.89744    
    826.80      0.89757    
    827.20      0.89770    
    827.60      0.89783    
    828.00      0.89795    
    828.40      0.89808    
    828.80      0.89821    
    829.20      0.89834    
    829.60      0.89846    
    830.00      0.89859    
    830.40      0.89871    
    830.80      0.89884    
    831.20      0.89897    
    831.60      0.89909    
    832.00      0.89922    
    832.40      0.89934    
    832.80      0.89947    
    833.20      0.89959    
    833.60      0.89972    
    834.00      0.89984    
    834.40      0.89997    
    834.80      0.90009    
    835.20      0.90021    
    835.60      0.90034    
    836.00      0.90046    
    836.40      0.90058    
    836.80      0.90071    
    837.20      0.90083    
    837.60      0.90095    
    838.00      0.90107    
    838.40      0.90120    
    838.80      0.90132    
    839.20      0.90144    
    839.60      0.90156    
    840.00      0.90168    
    840.40      0.90180    
    840.80      0.90193    
    841.20      0.90205    
    841.60      0.90217    
    842.00      0.90229    
    842.40      0.90241    
    842.80      0.90253    
    843.20      0.90265    
    843.60      0.90277    
    844.00      0.90289    
    844.40      0.90301    
    844.80      0.90312    
    845.20      0.90324    
    845.60      0.90336    
    846.00      0.90348    
    846.40      0.90360    
    846.80      0.90372    
    847.20      0.90383    
    847.60      0.90395    
    848.00      0.90407    
    848.40      0.90419    
    848.80      0.90430    
    849.20      0.90442    
    849.60      0.90454    
    850.00      0.90465    
850.40      0.90477    
    850.80      0.90489    
    851.20      0.90500    
    851.60      0.90512    
    852.00      0.90523    
    852.40      0.90535    
    852.80      0.90547    
    853.20      0.90558    
    853.60      0.90570    
    854.00      0.90581    
    854.40      0.90592    
    854.80      0.90604    
    855.20      0.90615    
    855.60      0.90627    
    856.00      0.90638    
    856.40      0.90649    
    856.80      0.90661    
    857.20      0.90672    
    857.60      0.90684    
    858.00      0.90695    
    858.40      0.90706    
    858.80      0.90717    
    859.20      0.90729    
    859.60      0.90740    
    860.00      0.90751    
    860.40      0.90762    
    860.80      0.90773    
    861.20      0.90785    
    861.60      0.90796    
    862.00      0.90807    
    862.40      0.90818    
    862.80      0.90829    
    863.20      0.90840    
    863.60      0.90851    
    864.00      0.90862    
    864.40      0.90873    
    864.80      0.90884    
    865.20      0.90895    
    865.60      0.90906    
    866.00      0.90917    
    866.40      0.90928    
    866.80      0.90939    
    867.20      0.90950    
    867.60      0.90961    
    868.00      0.90971    
    868.40      0.90982    
    868.80      0.90993    
    869.20      0.91004    
    869.60      0.91015    
    870.00      0.91026    
    870.40      0.91036    
    870.80      0.91047    
    871.20      0.91058    
    871.60      0.91069    
    872.00      0.91079    
    872.40      0.91090    
    872.80      0.91101    
    873.20      0.91111    
    873.60      0.91122    
    874.00      0.91132    
    874.40      0.91143    
    874.80      0.91154    
    875.20      0.91164    
    875.60      0.91175    
    876.00      0.91185    
    876.40      0.91196    
    876.80      0.91206    
    877.20      0.91217    
    877.60      0.91227    
    878.00      0.91238    
    878.40      0.91248    
    878.80      0.91258    
    879.20      0.91269    
    879.60      0.91279    
    880.00      0.91290    
    880.40      0.91300    
    880.80      0.91310    
    881.20      0.91321    
    881.60      0.91331    
    882.00      0.91341    
    882.40      0.91351    
    882.80      0.91362    
    883.20      0.91372    
    883.60      0.91382    
    884.00      0.91392    
    884.40      0.91402    
    884.80      0.91413    
    885.20      0.91423    
    885.60      0.91433    
    886.00      0.91443    
    886.40      0.91453    
    886.80      0.91463    
    887.20      0.91473    
    887.60      0.91483    
    888.00      0.91493    
    888.40      0.91503    
    888.80      0.91513    
    889.20      0.91523    
    889.60      0.91533    
    890.00      0.91543    
    890.40      0.91553    
    890.80      0.91563    
    891.20      0.91573    
    891.60      0.91583    
    892.00      0.91593    
    892.40      0.91603    
    892.80      0.91613    
    893.20      0.91622    
    893.60      0.91632    
    894.00      0.91642    
    894.40      0.91652    
    894.80      0.91662    
    895.20      0.91671    
    895.60      0.91681    
    896.00      0.91691    
    896.40      0.91700    
    896.80      0.91710    
    897.20      0.91720    
    897.60      0.91730    
    898.00      0.91739    
    898.40      0.91749    
    898.80      0.91758    
    899.20      0.91768    
    899.60      0.91778    
    900.00      0.91787    
    900.40      0.91797    
    900.80      0.91806    
    901.20      0.91816    
    901.60      0.91825    
    902.00      0.91835    
    902.40      0.91844    
    902.80      0.91854    
    903.20      0.91863    
    903.60      0.91873    
    904.00      0.91882    
    904.40      0.91892    
    904.80      0.91901    
    905.20      0.91910    
    905.60      0.91920    
    906.00      0.91929    
    906.40      0.91938    
    906.80      0.91948    
    907.20      0.91957    
    907.60      0.91966    
    908.00      0.91976    
    908.40      0.91985    
    908.80      0.91994    
    909.20      0.92003    
    909.60      0.92013    
    910.00      0.92022    
    910.40      0.92031    
    910.80      0.92040    
    911.20      0.92049    
    911.60      0.92058    
    912.00      0.92068    
    912.40      0.92077    
    912.80      0.92086    
    913.20      0.92095    
    913.60      0.92104    
    914.00      0.92113    
    914.40      0.92122    
    914.80      0.92131    
    915.20      0.92140    
    915.60      0.92149    
    916.00      0.92158    
    916.40      0.92167    
    916.80      0.92176    
    917.20      0.92185    
    917.60      0.92194    
    918.00      0.92203    
    918.40      0.92212    
    918.80      0.92221    
    919.20      0.92230    
    919.60      0.92239    
    920.00      0.92247    
    920.40      0.92256    
    920.80      0.92265    
    921.20      0.92274    
    921.60      0.92283    
    922.00      0.92292    
    922.40      0.92300    
    922.80      0.92309    
    923.20      0.92318    
    923.60      0.92327    
    924.00      0.92335    
    924.40      0.92344    
    924.80      0.92353    
    925.20      0.92362    
    925.60      0.92370    
    926.00      0.92379    
    926.40      0.92388    
    926.80      0.92396    
    927.20      0.92405    
    927.60      0.92414    
    928.00      0.92422    
    928.40      0.92431    
    928.80      0.92439    
    929.20      0.92448    
    929.60      0.92457    
    930.00      0.92465    
    930.40      0.92474    
    930.80      0.92482    
    931.20      0.92491    
    931.60      0.92499    
    932.00      0.92508    
    932.40      0.92516    
    932.80      0.92525    
    933.20      0.92533    
    933.60      0.92542    
    934.00      0.92550    
    934.40      0.92559    
    934.80      0.92567    
    935.20      0.92575    
    935.60      0.92584    
    936.00      0.92592    
    936.40      0.92600    
    936.80      0.92609    
    937.20      0.92617    
    937.60      0.92625    
    938.00      0.92634    
    938.40      0.92642    
    938.80      0.92650    
    939.20      0.92659    
    939.60      0.92667    
    940.00      0.92675    
    940.40      0.92683    
    940.80      0.92691    
    941.20      0.92700    
    941.60      0.92708    
    942.00      0.92716    
    942.40      0.92724    
    942.80      0.92732    
    943.20      0.92741    
    943.60      0.92749    
    944.00      0.92757    
    944.40      0.92765    
    944.80      0.92773    
    945.20      0.92781    
    945.60      0.92789    
    946.00      0.92797    
    946.40      0.92805    
    946.80      0.92813    
    947.20      0.92821    
    947.60      0.92829    
    948.00      0.92837    
    948.40      0.92845    
    948.80      0.92853    
    949.20      0.92861    
    949.60      0.92869    
    950.00      0.92877    
    950.40      0.92885    
    950.80      0.92893    
    951.20      0.92901    
    951.60      0.92909    
    952.00      0.92917    
    952.40      0.92924    
    952.80      0.92932    
    953.20      0.92940    
    953.60      0.92948    
    954.00      0.92956    
    954.40      0.92964    
    954.80      0.92971    
    955.20      0.92979    
    955.60      0.92987    
    956.00      0.92995    
    956.40      0.93002    
    956.80      0.93010    
    957.20      0.93018    
    957.60      0.93026    
    958.00      0.93033    
    958.40      0.93041    
    958.80      0.93049    
    959.20      0.93056    
    959.60      0.93064    
    960.00      0.93072    
    960.40      0.93079    
    960.80      0.93087    
    961.20      0.93095    
    961.60      0.93102    
    962.00      0.93110    
    962.40      0.93117    
    962.80      0.93125    
    963.20      0.93133    
    963.60      0.93140    
    964.00      0.93148    
    964.40      0.93155    
    964.80      0.93163    
    965.20      0.93170    
    965.60      0.93178    
    966.00      0.93185    
    966.40      0.93193    
    966.80      0.93200    
    967.20      0.93207    
    967.60      0.93215    
    968.00      0.93222    
    968.40      0.93230    
    968.80      0.93237    
    969.20      0.93245    
    969.60      0.93252    
    970.00      0.93259    
    970.40      0.93267    
    970.80      0.93274    
    971.20      0.93281    
    971.60      0.93289    
    972.00      0.93296    
    972.40      0.93303    
    972.80      0.93311    
    973.20      0.93318    
    973.60      0.93325    
    974.00      0.93333    
    974.40      0.93340    
    974.80      0.93347    
    975.20      0.93354    
    975.60      0.93361    
    976.00      0.93369    
    976.40      0.93376    
    976.80      0.93383    
    977.20      0.93390    
    977.60      0.93397    
    978.00      0.93405    
    978.40      0.93412    
    978.80      0.93419    
    979.20      0.93426    
    979.60      0.93433    
    980.00      0.93440    
    980.40      0.93447    
    980.80      0.93455    
    981.20      0.93462    
    981.60      0.93469    
    982.00      0.93476    
    982.40      0.93483    
    982.80      0.93490    
    983.20      0.93497    
    983.60      0.93504    
    984.00      0.93511    
    984.40      0.93518    
    984.80      0.93525    
    985.20      0.93532    
    985.60      0.93539    
    986.00      0.93546    
    986.40      0.93553    
    986.80      0.93560    
    987.20      0.93566    
    987.60      0.93573    
    988.00      0.93580    
    988.40      0.93587    
    988.80      0.93594    
    989.20      0.93601    
    989.60      0.93608    
    990.00      0.93615    
    990.40      0.93621    
    990.80      0.93628    
    991.20      0.93635    
    991.60      0.93642    
    992.00      0.93649    
    992.40      0.93655    
    992.80      0.93662    
    993.20      0.93669    
    993.60      0.93676    
    994.00      0.93682    
    994.40      0.93689    
    994.80      0.93696    
    995.20      0.93703    
    995.60      0.93709    
    996.00      0.93716    
    996.40      0.93723    
    996.80      0.93729    
    997.20      0.93736    
    997.60      0.93743    
    998.00      0.93749    
    998.40      0.93756    
    998.80      0.93763    
    999.20      0.93769    
    999.60      0.93776    
    1000.0      0.93782    
    1000.4      0.93789    
    1000.8      0.93796    
    1001.2      0.93802    
    1001.6      0.93809    
    1002.0      0.93815    
    1002.4      0.93822    
    1002.8      0.93828    
    1003.2      0.93835    
    1003.6      0.93841    
    1004.0      0.93848    
    1004.4      0.93854    
    1004.8      0.93861    
    1005.2      0.93867    
    1005.6      0.93874    
    1006.0      0.93880    
    1006.4      0.93886    
    1006.8      0.93893    
    1007.2      0.93899    
    1007.6      0.93906    
    1008.0      0.93912    
    1008.4      0.93918    
    1008.8      0.93925    
    1009.2      0.93931    
    1009.6      0.93938    
    1010.0      0.93944    
    1010.4      0.93950    
    1010.8      0.93957    
    1011.2      0.93963    
    1011.6      0.93969    
    1012.0      0.93975    
    1012.4      0.93982    
    1012.8      0.93988    
    1013.2      0.93994    
    1013.6      0.94001    
    1014.0      0.94007    
    1014.4      0.94013    
    1014.8      0.94019    
    1015.2      0.94026    
    1015.6      0.94032    
    1016.0      0.94038    
    1016.4      0.94044    
    1016.8      0.94050    
    1017.2      0.94056    
    1017.6      0.94062    
    1018.0      0.94068    
    1018.4      0.94074    
    1018.8      0.94080    
    1019.2      0.94086    
    1019.6      0.94092    
    1020.0      0.94098    
    1020.4      0.94104    
    1020.8      0.94110    
    1021.2      0.94116    
    1021.6      0.94122    
    1022.0      0.94128    
    1022.4      0.94134    
    1022.8      0.94139    
    1023.2      0.94145    
    1023.6      0.94151    
    1024.0      0.94157    
    1024.4      0.94163    
    1024.8      0.94169    
    1025.2      0.94175    
    1025.6      0.94181    
    1026.0      0.94186    
    1026.4      0.94192    
    1026.8      0.94198    
    1027.2      0.94204    
    1027.6      0.94210    
    1028.0      0.94215    
    1028.4      0.94221    
    1028.8      0.94227    
    1029.2      0.94233    
    1029.6      0.94239    
    1030.0      0.94244    
    1030.4      0.94250    
    1030.8      0.94256    
    1031.2      0.94262    
    1031.6      0.94267    
    1032.0      0.94273    
    1032.4      0.94279    
    1032.8      0.94285    
    1033.2      0.94290    
    1033.6      0.94296    
    1034.0      0.94302    
    1034.4      0.94308    
    1034.8      0.94314    
    1035.2      0.94319    
    1035.6      0.94325    
    1036.0      0.94331    
    1036.4      0.94337    
    1036.8      0.94342    
    1037.2      0.94348    
    1037.6      0.94354    
    1038.0      0.94359    
    1038.4      0.94365    
    1038.8      0.94371    
    1039.2      0.94377    
    1039.6      0.94382    
    1040.0      0.94388    
    1040.4      0.94394    
    1040.8      0.94399    
    1041.2      0.94405    
    1041.6      0.94410    
    1042.0      0.94416    
    1042.4      0.94422    
    1042.8      0.94427    
    1043.2      0.94433    
    1043.6      0.94439    
    1044.0      0.94444    
    1044.4      0.94450    
    1044.8      0.94455    
    1045.2      0.94461    
    1045.6      0.94466    
    1046.0      0.94472    
    1046.4      0.94478    
    1046.8      0.94483    
    1047.2      0.94489    
    1047.6      0.94494    
    1048.0      0.94500    
    1048.4      0.94505    
    1048.8      0.94511    
    1049.2      0.94516    
    1049.6      0.94522    
    1050.0      0.94527    
1050.4      0.94533    
    1050.8      0.94539    
    1051.2      0.94544    
    1051.6      0.94550    
    1052.0      0.94555    
    1052.4      0.94561    
    1052.8      0.94566    
    1053.2      0.94572    
    1053.6      0.94578    
    1054.0      0.94583    
    1054.4      0.94589    
    1054.8      0.94594    
    1055.2      0.94600    
    1055.6      0.94605    
    1056.0      0.94611    
    1056.4      0.94616    
    1056.8      0.94621    
    1057.2      0.94627    
    1057.6      0.94632    
    1058.0      0.94638    
    1058.4      0.94643    
    1058.8      0.94649    
    1059.2      0.94654    
    1059.6      0.94660    
    1060.0      0.94665    
    1060.4      0.94670    
    1060.8      0.94676    
    1061.2      0.94681    
    1061.6      0.94687    
    1062.0      0.94692    
    1062.4      0.94697    
    1062.8      0.94703    
    1063.2      0.94708    
    1063.6      0.94713    
    1064.0      0.94719    
    1064.4      0.94724    
    1064.8      0.94729    
    1065.2      0.94735    
    1065.6      0.94740    
    1066.0      0.94745    
    1066.4      0.94751    
    1066.8      0.94756    
    1067.2      0.94761    
    1067.6      0.94766    
    1068.0      0.94772    
    1068.4      0.94777    
    1068.8      0.94782    
    1069.2      0.94787    
    1069.6      0.94793    
    1070.0      0.94798    
    1070.4      0.94803    
    1070.8      0.94808    
    1071.2      0.94814    
    1071.6      0.94819    
    1072.0      0.94824    
    1072.4      0.94829    
    1072.8      0.94834    
    1073.2      0.94839    
    1073.6      0.94845    
    1074.0      0.94850    
    1074.4      0.94855    
    1074.8      0.94860    
    1075.2      0.94865    
    1075.6      0.94870    
    1076.0      0.94876    
    1076.4      0.94881    
    1076.8      0.94886    
    1077.2      0.94891    
    1077.6      0.94896    
    1078.0      0.94901    
    1078.4      0.94906    
    1078.8      0.94911    
    1079.2      0.94916    
    1079.6      0.94921    
    1080.0      0.94926    
    1080.4      0.94931    
    1080.8      0.94937    
    1081.2      0.94942    
    1081.6      0.94947    
    1082.0      0.94952    
    1082.4      0.94957    
    1082.8      0.94962    
    1083.2      0.94967    
    1083.6      0.94972    
    1084.0      0.94977    
    1084.4      0.94982    
    1084.8      0.94987    
    1085.2      0.94992    
    1085.6      0.94997    
    1086.0      0.95001    
    1086.4      0.95006    
    1086.8      0.95011    
    1087.2      0.95016    
    1087.6      0.95021    
    1088.0      0.95026    
    1088.4      0.95031    
    1088.8      0.95036    
    1089.2      0.95041    
    1089.6      0.95046    
    1090.0      0.95051    
    1090.4      0.95056    
    1090.8      0.95060    
    1091.2      0.95065    
    1091.6      0.95070    
    1092.0      0.95075    
    1092.4      0.95080    
    1092.8      0.95085    
    1093.2      0.95090    
    1093.6      0.95094    
    1094.0      0.95099    
    1094.4      0.95104    
    1094.8      0.95109    
    1095.2      0.95114    
    1095.6      0.95119    
    1096.0      0.95123    
    1096.4      0.95128    
    1096.8      0.95133    
    1097.2      0.95138    
    1097.6      0.95142    
    1098.0      0.95147    
    1098.4      0.95152    
    1098.8      0.95157    
    1099.2      0.95161    
    1099.6      0.95166    
    1100.0      0.95171    
    1100.4      0.95176    
    1100.8      0.95180    
    1101.2      0.95185    
    1101.6      0.95190    
    1102.0      0.95194    
    1102.4      0.95199    
    1102.8      0.95204    
    1103.2      0.95209    
    1103.6      0.95213    
    1104.0      0.95218    
    1104.4      0.95223    
    1104.8      0.95227    
    1105.2      0.95232    
    1105.6      0.95237    
    1106.0      0.95241    
    1106.4      0.95246    
    1106.8      0.95250    
    1107.2      0.95255    
    1107.6      0.95260    
    1108.0      0.95264    
    1108.4      0.95269    
    1108.8      0.95274    
    1109.2      0.95278    
    1109.6      0.95283    
    1110.0      0.95287    
    1110.4      0.95292    
    1110.8      0.95296    
    1111.2      0.95301    
    1111.6      0.95306    
    1112.0      0.95310    
    1112.4      0.95315    
    1112.8      0.95319    
    1113.2      0.95324    
    1113.6      0.95328    
    1114.0      0.95333    
    1114.4      0.95337    
    1114.8      0.95342    
    1115.2      0.95346    
    1115.6      0.95351    
    1116.0      0.95355    
    1116.4      0.95360    
    1116.8      0.95364    
    1117.2      0.95369    
    1117.6      0.95373    
    1118.0      0.95378    
    1118.4      0.95382    
    1118.8      0.95387    
    1119.2      0.95391    
    1119.6      0.95395    
    1120.0      0.95400    
    1120.4      0.95404    
    1120.8      0.95409    
    1121.2      0.95413    
    1121.6      0.95418    
    1122.0      0.95422    
    1122.4      0.95426    
    1122.8      0.95431    
    1123.2      0.95435    
    1123.6      0.95440    
    1124.0      0.95444    
    1124.4      0.95448    
    1124.8      0.95453    
    1125.2      0.95457    
    1125.6      0.95461    
    1126.0      0.95466    
    1126.4      0.95470    
    1126.8      0.95474    
    1127.2      0.95479    
    1127.6      0.95483    
    1128.0      0.95487    
    1128.4      0.95492    
    1128.8      0.95496    
    1129.2      0.95500    
    1129.6      0.95505    
    1130.0      0.95509    
    1130.4      0.95513    
    1130.8      0.95517    
    1131.2      0.95522    
    1131.6      0.95526    
    1132.0      0.95530    
    1132.4      0.95534    
    1132.8      0.95539    
    1133.2      0.95543    
    1133.6      0.95547    
    1134.0      0.95551    
    1134.4      0.95556    
    1134.8      0.95560    
    1135.2      0.95564    
    1135.6      0.95568    
    1136.0      0.95573    
    1136.4      0.95577    
    1136.8      0.95581    
    1137.2      0.95585    
    1137.6      0.95589    
    1138.0      0.95594    
    1138.4      0.95598    
    1138.8      0.95602    
    1139.2      0.95606    
    1139.6      0.95610    
    1140.0      0.95614    
    1140.4      0.95619    
    1140.8      0.95623    
    1141.2      0.95627    
    1141.6      0.95631    
    1142.0      0.95635    
    1142.4      0.95639    
    1142.8      0.95643    
    1143.2      0.95647    
    1143.6      0.95652    
    1144.0      0.95656    
    1144.4      0.95660    
    1144.8      0.95664    
    1145.2      0.95668    
    1145.6      0.95672    
    1146.0      0.95676    
    1146.4      0.95680    
    1146.8      0.95684    
    1147.2      0.95688    
    1147.6      0.95692    
    1148.0      0.95696    
    1148.4      0.95700    
    1148.8      0.95704    
    1149.2      0.95709    
    1149.6      0.95713    
    1150.0      0.95717    
    1150.4      0.95721    
    1150.8      0.95725    
    1151.2      0.95729    
    1151.6      0.95733    
    1152.0      0.95737    
    1152.4      0.95741    
    1152.8      0.95745    
    1153.2      0.95749    
    1153.6      0.95753    
    1154.0      0.95757    
    1154.4      0.95761    
    1154.8      0.95765    
    1155.2      0.95768    
    1155.6      0.95772    
    1156.0      0.95776    
    1156.4      0.95780    
    1156.8      0.95784    
    1157.2      0.95788    
    1157.6      0.95792    
    1158.0      0.95796    
    1158.4      0.95800    
    1158.8      0.95804    
    1159.2      0.95808    
    1159.6      0.95812    
    1160.0      0.95816    
    1160.4      0.95820    
    1160.8      0.95823    
    1161.2      0.95827    
    1161.6      0.95831    
    1162.0      0.95835    
    1162.4      0.95839    
    1162.8      0.95843    
    1163.2      0.95847    
    1163.6      0.95851    
    1164.0      0.95854    
    1164.4      0.95858    
    1164.8      0.95862    
    1165.2      0.95866    
    1165.6      0.95870    
    1166.0      0.95874    
    1166.4      0.95877    
    1166.8      0.95881    
    1167.2      0.95885    
    1167.6      0.95889    
    1168.0      0.95893    
    1168.4      0.95896    
    1168.8      0.95900    
    1169.2      0.95904    
    1169.6      0.95908    
    1170.0      0.95912    
    1170.4      0.95915    
    1170.8      0.95919    
    1171.2      0.95923    
    1171.6      0.95927    
    1172.0      0.95930    
    1172.4      0.95934    
    1172.8      0.95938    
    1173.2      0.95942    
    1173.6      0.95945    
    1174.0      0.95949    
    1174.4      0.95953    
    1174.8      0.95957    
    1175.2      0.95960    
    1175.6      0.95964    
    1176.0      0.95968    
    1176.4      0.95972    
    1176.8      0.95975    
    1177.2      0.95979    
    1177.6      0.95983    
    1178.0      0.95986    
    1178.4      0.95990    
    1178.8      0.95994    
    1179.2      0.95997    
    1179.6      0.96001    
    1180.0      0.96005    
    1180.4      0.96008    
    1180.8      0.96012    
    1181.2      0.96016    
    1181.6      0.96019    
    1182.0      0.96023    
    1182.4      0.96027    
    1182.8      0.96030    
    1183.2      0.96034    
    1183.6      0.96037    
    1184.0      0.96041    
    1184.4      0.96045    
    1184.8      0.96048    
    1185.2      0.96052    
    1185.6      0.96056    
    1186.0      0.96059    
    1186.4      0.96063    
    1186.8      0.96066    
    1187.2      0.96070    
    1187.6      0.96073    
    1188.0      0.96077    
    1188.4      0.96081    
    1188.8      0.96084    
    1189.2      0.96088    
    1189.6      0.96091    
    1190.0      0.96095    
    1190.4      0.96098    
    1190.8      0.96102    
    1191.2      0.96106    
    1191.6      0.96109    
    1192.0      0.96113    
    1192.4      0.96116    
    1192.8      0.96120    
    1193.2      0.96123    
    1193.6      0.96127    
    1194.0      0.96130    
    1194.4      0.96134    
    1194.8      0.96137    
    1195.2      0.96141    
    1195.6      0.96144    
    1196.0      0.96148    
    1196.4      0.96151    
    1196.8      0.96155    
    1197.2      0.96158    
    1197.6      0.96162    
    1198.0      0.96165    
    1198.4      0.96169    
    1198.8      0.96172    
    1199.2      0.96175    
    1199.6      0.96179    
    1200.0      0.96182    
    1200.4      0.96186    
    1200.8      0.96189    
    1201.2      0.96193    
    1201.6      0.96196    
    1202.0      0.96200    
    1202.4      0.96203    
    1202.8      0.96206    
    1203.2      0.96210    
    1203.6      0.96213    
    1204.0      0.96217    
    1204.4      0.96220    
    1204.8      0.96223    
    1205.2      0.96227    
    1205.6      0.96230    
    1206.0      0.96234    
    1206.4      0.96237    
    1206.8      0.96240    
    1207.2      0.96244    
    1207.6      0.96247    
    1208.0      0.96250    
    1208.4      0.96254    
    1208.8      0.96257    
    1209.2      0.96261    
    1209.6      0.96264    
    1210.0      0.96267    
    1210.4      0.96271    
    1210.8      0.96274    
    1211.2      0.96277    
    1211.6      0.96281    
    1212.0      0.96284    
    1212.4      0.96287    
    1212.8      0.96291    
    1213.2      0.96294    
    1213.6      0.96297    
    1214.0      0.96300    
    1214.4      0.96304    
    1214.8      0.96307    
    1215.2      0.96310    
    1215.6      0.96314    
    1216.0      0.96317    
    1216.4      0.96320    
    1216.8      0.96323    
    1217.2      0.96327    
    1217.6      0.96330    
    1218.0      0.96333    
    1218.4      0.96337    
    1218.8      0.96340    
    1219.2      0.96343    
    1219.6      0.96346    
    1220.0      0.96350    
    1220.4      0.96353    
    1220.8      0.96356    
    1221.2      0.96359    
    1221.6      0.96362    
    1222.0      0.96366    
    1222.4      0.96369    
    1222.8      0.96372    
    1223.2      0.96375    
    1223.6      0.96379    
    1224.0      0.96382    
    1224.4      0.96385    
    1224.8      0.96388    
    1225.2      0.96391    
    1225.6      0.96395    
    1226.0      0.96398    
    1226.4      0.96401    
    1226.8      0.96404    
    1227.2      0.96407    
    1227.6      0.96410    
    1228.0      0.96414    
    1228.4      0.96417    
    1228.8      0.96420    
    1229.2      0.96423    
    1229.6      0.96426    
    1230.0      0.96429    
    1230.4      0.96433    
    1230.8      0.96436    
    1231.2      0.96439    
    1231.6      0.96442    
    1232.0      0.96445    
    1232.4      0.96448    
    1232.8      0.96451    
    1233.2      0.96454    
    1233.6      0.96458    
    1234.0      0.96461    
    1234.4      0.96464    
    1234.8      0.96467    
    1235.2      0.96470    
    1235.6      0.96473    
    1236.0      0.96476    
    1236.4      0.96479    
    1236.8      0.96482    
    1237.2      0.96485    
    1237.6      0.96488    
    1238.0      0.96491    
    1238.4      0.96494    
    1238.8      0.96497    
    1239.2      0.96501    
    1239.6      0.96504    
    1240.0      0.96507    
    1240.4      0.96510    
    1240.8      0.96513    
    1241.2      0.96516    
    1241.6      0.96519    
    1242.0      0.96522    
    1242.4      0.96525    
    1242.8      0.96528    
    1243.2      0.96531    
    1243.6      0.96534    
    1244.0      0.96537    
    1244.4      0.96540    
    1244.8      0.96543    
    1245.2      0.96546    
    1245.6      0.96549    
    1246.0      0.96552    
    1246.4      0.96555    
    1246.8      0.96558    
    1247.2      0.96561    
    1247.6      0.96564    
    1248.0      0.96567    
    1248.4      0.96570    
    1248.8      0.96573    
    1249.2      0.96575    
    1249.6      0.96578    
    1250.0      0.96581    
1250.7      0.96587    
    1251.4      0.96592    
    1252.1      0.96597    
    1252.8      0.96602    
    1253.5      0.96607    
    1254.2      0.96612    
    1254.9      0.96617    
    1255.6      0.96622    
    1256.3      0.96627    
    1257.0      0.96632    
    1257.7      0.96637    
    1258.4      0.96642    
    1259.1      0.96647    
    1259.8      0.96652    
    1260.5      0.96657    
    1261.2      0.96662    
    1261.9      0.96667    
    1262.6      0.96672    
    1263.3      0.96677    
    1264.0      0.96682    
    1264.7      0.96687    
    1265.4      0.96692    
    1266.1      0.96697    
    1266.8      0.96701    
    1267.5      0.96706    
    1268.2      0.96711    
    1268.9      0.96716    
    1269.6      0.96721    
    1270.3      0.96726    
    1271.0      0.96731    
    1271.7      0.96735    
    1272.4      0.96740    
    1273.1      0.96745    
    1273.8      0.96750    
    1274.5      0.96754    
    1275.2      0.96759    
    1275.9      0.96764    
    1276.6      0.96769    
    1277.3      0.96773    
    1278.0      0.96778    
    1278.7      0.96783    
    1279.4      0.96787    
    1280.1      0.96792    
    1280.8      0.96797    
    1281.5      0.96801    
    1282.2      0.96806    
    1282.9      0.96811    
    1283.6      0.96815    
    1284.3      0.96820    
    1285.0      0.96824    
    1285.7      0.96829    
    1286.4      0.96834    
    1287.1      0.96838    
    1287.8      0.96843    
    1288.5      0.96847    
    1289.2      0.96852    
    1289.9      0.96856    
    1290.6      0.96861    
    1291.3      0.96865    
    1292.0      0.96870    
    1292.7      0.96874    
    1293.4      0.96879    
    1294.1      0.96883    
    1294.8      0.96888    
    1295.5      0.96892    
    1296.2      0.96897    
    1296.9      0.96901    
    1297.6      0.96906    
    1298.3      0.96910    
    1299.0      0.96915    
    1299.7      0.96919    
    1300.4      0.96923    
    1301.1      0.96928    
    1301.8      0.96932    
    1302.5      0.96936    
    1303.2      0.96941    
    1303.9      0.96945    
    1304.6      0.96950    
    1305.3      0.96954    
    1306.0      0.96958    
    1306.7      0.96963    
    1307.4      0.96967    
    1308.1      0.96971    
    1308.8      0.96976    
    1309.5      0.96980    
    1310.2      0.96984    
    1310.9      0.96988    
    1311.6      0.96993    
    1312.3      0.96997    
    1313.0      0.97001    
    1313.7      0.97005    
    1314.4      0.97010    
    1315.1      0.97014    
    1315.8      0.97018    
    1316.5      0.97022    
    1317.2      0.97027    
    1317.9      0.97031    
    1318.6      0.97035    
    1319.3      0.97039    
    1320.0      0.97043    
    1320.7      0.97047    
    1321.4      0.97052    
    1322.1      0.97056    
    1322.8      0.97060    
    1323.5      0.97064    
    1324.2      0.97068    
    1324.9      0.97072    
    1325.6      0.97076    
    1326.3      0.97081    
    1327.0      0.97085    
    1327.7      0.97089    
    1328.4      0.97093    
    1329.1      0.97097    
    1329.8      0.97101    
    1330.5      0.97105    
    1331.2      0.97109    
    1331.9      0.97113    
    1332.6      0.97117    
    1333.3      0.97121    
    1334.0      0.97125    
    1334.7      0.97129    
    1335.4      0.97133    
    1336.1      0.97137    
    1336.8      0.97141    
    1337.5      0.97145    
    1338.2      0.97149    
    1338.9      0.97153    
    1339.6      0.97157    
    1340.3      0.97161    
    1341.0      0.97165    
    1341.7      0.97169    
    1342.4      0.97173    
    1343.1      0.97177    
    1343.8      0.97181    
    1344.5      0.97185    
    1345.2      0.97188    
    1345.9      0.97192    
    1346.6      0.97196    
    1347.3      0.97200    
    1348.0      0.97204    
    1348.7      0.97208    
    1349.4      0.97212    
    1350.1      0.97215    
    1350.8      0.97219    
    1351.5      0.97223    
    1352.2      0.97227    
    1352.9      0.97231    
    1353.6      0.97235    
    1354.3      0.97238    
    1355.0      0.97242    
    1355.7      0.97246    
    1356.4      0.97250    
    1357.1      0.97254    
    1357.8      0.97257    
    1358.5      0.97261    
    1359.2      0.97265    
    1359.9      0.97269    
    1360.6      0.97272    
    1361.3      0.97276    
    1362.0      0.97280    
    1362.7      0.97284    
    1363.4      0.97287    
    1364.1      0.97291    
    1364.8      0.97295    
    1365.5      0.97298    
    1366.2      0.97302    
    1366.9      0.97306    
    1367.6      0.97309    
    1368.3      0.97313    
    1369.0      0.97317    
    1369.7      0.97320    
    1370.4      0.97324    
    1371.1      0.97328    
    1371.8      0.97331    
    1372.5      0.97335    
    1373.2      0.97338    
    1373.9      0.97342    
    1374.6      0.97346    
    1375.3      0.97349    
    1376.0      0.97353    
    1376.7      0.97356    
    1377.4      0.97360    
    1378.1      0.97364    
    1378.8      0.97367    
    1379.5      0.97371    
    1380.2      0.97374    
    1380.9      0.97378    
    1381.6      0.97381    
    1382.3      0.97385    
    1383.0      0.97388    
    1383.7      0.97392    
    1384.4      0.97395    
    1385.1      0.97399    
    1385.8      0.97402    
    1386.5      0.97406    
    1387.2      0.97409    
    1387.9      0.97413    
    1388.6      0.97416    
    1389.3      0.97420    
    1390.0      0.97423    
    1390.7      0.97427    
    1391.4      0.97430    
    1392.1      0.97434    
    1392.8      0.97437    
    1393.5      0.97441    
    1394.2      0.97444    
    1394.9      0.97447    
    1395.6      0.97451    
    1396.3      0.97454    
    1397.0      0.97458    
    1397.7      0.97461    
    1398.4      0.97464    
    1399.1      0.97468    
    1399.8      0.97471    
    1400.5      0.97474    
    1401.2      0.97478    
    1401.9      0.97481    
    1402.6      0.97485    
    1403.3      0.97488    
    1404.0      0.97491    
    1404.7      0.97495    
    1405.4      0.97498    
    1406.1      0.97501    
    1406.8      0.97504    
    1407.5      0.97508    
    1408.2      0.97511    
    1408.9      0.97514    
    1409.6      0.97518    
    1410.3      0.97521    
    1411.0      0.97524    
    1411.7      0.97528    
    1412.4      0.97531    
    1413.1      0.97534    
    1413.8      0.97537    
    1414.5      0.97541    
    1415.2      0.97544    
    1415.9      0.97547    
    1416.6      0.97550    
    1417.3      0.97553    
    1418.0      0.97557    
    1418.7      0.97560    
    1419.4      0.97563    
    1420.1      0.97566    
    1420.8      0.97570    
    1421.5      0.97573    
    1422.2      0.97576    
    1422.9      0.97579    
    1423.6      0.97582    
    1424.3      0.97585    
    1425.0      0.97589    
    1425.7      0.97592    
    1426.4      0.97595    
    1427.1      0.97598    
    1427.8      0.97601    
    1428.5      0.97604    
    1429.2      0.97607    
    1429.9      0.97611    
    1430.6      0.97614    
    1431.3      0.97617    
    1432.0      0.97620    
    1432.7      0.97623    
    1433.4      0.97626    
    1434.1      0.97629    
    1434.8      0.97632    
    1435.5      0.97635    
    1436.2      0.97638    
    1436.9      0.97641    
    1437.6      0.97645    
    1438.3      0.97648    
    1439.0      0.97651    
    1439.7      0.97654    
    1440.4      0.97657    
    1441.1      0.97660    
    1441.8      0.97663    
    1442.5      0.97666    
    1443.2      0.97669    
    1443.9      0.97672    
    1444.6      0.97675    
    1445.3      0.97678    
    1446.0      0.97681    
    1446.7      0.97684    
    1447.4      0.97687    
    1448.1      0.97690    
    1448.8      0.97693    
    1449.5      0.97696    
    1450.2      0.97699    
    1450.9      0.97702    
    1451.6      0.97705    
    1452.3      0.97708    
    1453.0      0.97711    
    1453.7      0.97714    
    1454.4      0.97717    
    1455.1      0.97720    
    1455.8      0.97723    
    1456.5      0.97726    
    1457.2      0.97729    
    1457.9      0.97731    
    1458.6      0.97734    
    1459.3      0.97737    
    1460.0      0.97740    
    1460.7      0.97743    
    1461.4      0.97746    
    1462.1      0.97749    
    1462.8      0.97752    
    1463.5      0.97755    
    1464.2      0.97758    
    1464.9      0.97761    
    1465.6      0.97763    
    1466.3      0.97766    
    1467.0      0.97769    
    1467.7      0.97772    
    1468.4      0.97775    
    1469.1      0.97778    
    1469.8      0.97781    
    1470.5      0.97783    
    1471.2      0.97786    
    1471.9      0.97789    
    1472.6      0.97792    
    1473.3      0.97795    
    1474.0      0.97798    
    1474.7      0.97801    
    1475.4      0.97804    
    1476.1      0.97806    
    1476.8      0.97809    
    1477.5      0.97812    
    1478.2      0.97815    
    1478.9      0.97818    
    1479.6      0.97820    
    1480.3      0.97823    
    1481.0      0.97826    
    1481.7      0.97829    
    1482.4      0.97832    
    1483.1      0.97834    
    1483.8      0.97837    
    1484.5      0.97840    
    1485.2      0.97843    
    1485.9      0.97846    
    1486.6      0.97848    
    1487.3      0.97851    
    1488.0      0.97854    
    1488.7      0.97857    
    1489.4      0.97859    
    1490.1      0.97862    
    1490.8      0.97865    
    1491.5      0.97868    
    1492.2      0.97870    
    1492.9      0.97873    
    1493.6      0.97876    
    1494.3      0.97879    
    1495.0      0.97882    
    1495.7      0.97884    
    1496.4      0.97887    
    1497.1      0.97890    
    1497.8      0.97893    
    1498.5      0.97896    
    1499.2      0.97899    
    1499.9      0.97901    
    1500.6      0.97904    
    1501.3      0.97907    
    1502.0      0.97910    
    1502.7      0.97913    
    1503.4      0.97916    
    1504.1      0.97918    
    1504.8      0.97921    
    1505.5      0.97924    
    1506.2      0.97927    
    1506.9      0.97929    
    1507.6      0.97932    
    1508.3      0.97935    
    1509.0      0.97938    
    1509.7      0.97940    
    1510.4      0.97943    
    1511.1      0.97946    
    1511.8      0.97949    
    1512.5      0.97951    
    1513.2      0.97954    
    1513.9      0.97957    
    1514.6      0.97960    
    1515.3      0.97962    
    1516.0      0.97965    
    1516.7      0.97968    
    1517.4      0.97970    
    1518.1      0.97973    
    1518.8      0.97976    
    1519.5      0.97979    
    1520.2      0.97981    
    1520.9      0.97984    
    1521.6      0.97987    
    1522.3      0.97989    
    1523.0      0.97992    
    1523.7      0.97995    
    1524.4      0.97997    
    1525.1      0.98000    
    1525.8      0.98003    
    1526.5      0.98005    
    1527.2      0.98008    
    1527.9      0.98011    
    1528.6      0.98013    
    1529.3      0.98016    
    1530.0      0.98019    
    1530.7      0.98021    
    1531.4      0.98024    
    1532.1      0.98026    
    1532.8      0.98029    
    1533.5      0.98032    
    1534.2      0.98034    
    1534.9      0.98037    
    1535.6      0.98039    
    1536.3      0.98042    
    1537.0      0.98045    
    1537.7      0.98047    
    1538.4      0.98050    
    1539.1      0.98052    
    1539.8      0.98055    
    1540.5      0.98058    
    1541.2      0.98060    
    1541.9      0.98063    
    1542.6      0.98065    
    1543.3      0.98068    
    1544.0      0.98070    
    1544.7      0.98073    
    1545.4      0.98075    
    1546.1      0.98078    
    1546.8      0.98080    
    1547.5      0.98083    
    1548.2      0.98085    
    1548.9      0.98088    
    1549.6      0.98090    
    1550.3      0.98093    
    1551.0      0.98095    
    1551.7      0.98098    
    1552.4      0.98100    
    1553.1      0.98103    
    1553.8      0.98105    
    1554.5      0.98108    
    1555.2      0.98110    
    1555.9      0.98113    
    1556.6      0.98115    
    1557.3      0.98118    
    1558.0      0.98120    
    1558.7      0.98123    
    1559.4      0.98125    
    1560.1      0.79873    
    1560.8      0.79892    
    1561.5      0.79911    
    1562.2      0.79930    
    1562.9      0.79949    
    1563.6      0.79968    
    1564.3      0.79987    
    1565.0      0.80006    
    1565.7      0.80025    
    1566.4      0.80044    
    1567.1      0.80063    
    1567.8      0.80081    
    1568.5      0.80100    
    1569.2      0.80119    
    1569.9      0.80137    
    1570.6      0.80156    
    1571.3      0.80175    
    1572.0      0.80193    
    1572.7      0.80212    
    1573.4      0.80231    
    1574.1      0.80249    
    1574.8      0.80268    
    1575.5      0.80286    
    1576.2      0.80305    
    1576.9      0.80323    
    1577.6      0.80342    
    1578.3      0.80360    
    1579.0      0.80379    
    1579.7      0.80397    
    1580.4      0.80415    
    1581.1      0.80434    
    1581.8      0.80452    
    1582.5      0.80470    
    1583.2      0.80489    
    1583.9      0.80507    
    1584.6      0.80525    
    1585.3      0.80543    
    1586.0      0.80561    
    1586.7      0.80580    
    1587.4      0.80598    
    1588.1      0.80616    
    1588.8      0.80634    
    1589.5      0.80652    
    1590.2      0.80670    
    1590.9      0.80688    
    1591.6      0.80706    
    1592.3      0.80724    
    1593.0      0.80742    
    1593.7      0.80760    
    1594.4      0.80778    
    1595.1      0.80796    
    1595.8      0.80813    
    1596.5      0.80831    
    1597.2      0.80849    
    1597.9      0.80867    
    1598.6      0.80885    
    1599.3      0.80902    
    1600.0      0.80920     
